 ELASTIC RESPONSE SPECTRUM CALCULATION


 NUMBER OF DAMPING VALUES      <10    =    1
 NUMBER OF OUTPUT PERIOD CARDS        =    1
 NUMBER OF ACCELERATION VALUES <35000 =15000
 INTERVAL OF DIGITIZATION             =     .0050
 ACCELERATION SCALE FACTOR            =    1.00000


 DAMPING VALUES (FRACTION OF CRITICAL)

           .050
 
 
 DAMPING RATIO =  .050
                                                         PSEUDO       PSEUDO
  PERIOD     DISPLACEMENT    VELOCITY   ACCELERATION    VELOCITY   ACCELERATION
                SD(cm)      SV(cm/sec)       SA(g)    SD*W(cm/sec)   SD*W**2(g)

    .010         .0012         .1913         .4979         .7765         .4973
    .020         .0055         .5418         .5492        1.7132         .5486
    .030         .0142        1.8330         .6359        2.9689         .6338
    .040         .0318        2.3414         .8013        4.9940         .7996
    .050         .0441        3.6841         .7073        5.5361         .7091
    .060         .0680        4.2537         .7601        7.1216         .7602
    .070         .0990        5.3330         .8179        8.8874         .8132
    .080         .1382        6.6067         .8730       10.8530         .8689
    .090         .1728        8.2304         .8617       12.0618         .8584
    .100         .2379       12.8229         .9535       14.9504         .9575
    .110         .3042       12.8465        1.0099       17.3729        1.0115
    .120         .3729       15.5931        1.0489       19.5241        1.0420
    .130         .4542       16.2472        1.0866       21.9528        1.0815
    .140         .5607       21.3409        1.1570       25.1625        1.1511
    .150         .6112       22.6881        1.0999       25.6009        1.0931
    .160         .7227       25.3685        1.1414       28.3789        1.1360
    .170         .8189       28.8408        1.1435       30.2669        1.1403
    .180         .9228       32.0973        1.1498       32.2108        1.1461
    .190         .9944       31.3021        1.1098       32.8824        1.1084
    .200        1.1322       28.8871        1.1450       35.5691        1.1390
    .210        1.2461       31.1029        1.1401       37.2813        1.1370
    .220        1.3602       32.9957        1.1353       38.8452        1.1309
    .230        1.4931       34.3225        1.1429       40.7884        1.1358
    .240        1.6252       36.1891        1.1407       42.5466        1.1354
    .250        1.7265       38.6899        1.1170       43.3897        1.1116
    .260        1.9610       33.4748        1.1707       47.3874        1.1673
    .270        2.0295       35.0842        1.1236       47.2270        1.1203
    .280        2.2182       38.0917        1.1424       49.7755        1.1386
    .290        2.3964       39.9867        1.1503       51.9201        1.1467
    .300        2.5123       39.8259        1.1266       52.6155        1.1233
    .310        2.7332       41.2150        1.1481       55.3958        1.1445
    .320        2.9019       40.5972        1.1442       56.9771        1.1404
    .330        3.0364       40.2307        1.1261       57.8108        1.1220
    .340        3.2977       42.3132        1.1527       60.9395        1.1479
    .350        3.5261       46.9814        1.1642       63.2994        1.1583
    .360        3.5137       55.4381        1.0954       61.3242        1.0910
    .370        3.8702       62.0374        1.1418       65.7210        1.1376
    .380        4.0831       64.4239        1.1427       67.5102        1.1378
    .390        4.3148       66.4202        1.1463       69.5120        1.1415
    .400        4.5949       68.6564        1.1612       72.1751        1.1556
    .410        4.6639       66.3105        1.1218       71.4720        1.1165
    .420        4.8921       63.5705        1.1211       73.1838        1.1160
    .430        5.2919       70.8788        1.1566       77.3231        1.1517
    .440        5.4822       75.7851        1.1444       78.2838        1.1395
    .450        5.8261       78.5428        1.1625       81.3458        1.1578
    .460        6.0919       81.6814        1.1640       83.2071        1.1585
    .470        6.1679       81.6365        1.1287       82.4524        1.1236
    .480        6.2992       80.8926        1.1054       82.4535        1.1002
    .490        6.7815       79.7083        1.1424       86.9558        1.1366
    .500        6.8079       79.2678        1.1019       85.5480        1.0958
    .510        7.2462       89.6026        1.1258       89.2701        1.1211
    .520        7.8504       95.4851        1.1726       94.8540        1.1683
    .530        8.0415       95.0896        1.1563       95.3296        1.1520
    .540        8.1839       93.9349        1.1338       95.2211        1.1294
    .550        8.4724       94.6264        1.1320       96.7854        1.1271
    .560        8.8427       96.1044        1.1400       99.2115        1.1347
    .570        9.1994       97.3432        1.1448      101.4032        1.1394
    .580        9.5112       98.0465        1.1439      103.0329        1.1377
    .590        9.8278       98.8742        1.1423      104.6573        1.1361
    .600       10.1931      100.3060        1.1456      106.7387        1.1394
    .610       10.5455      101.5819        1.1469      108.6189        1.1404
    .620       10.8146      101.9953        1.1385      109.5939        1.1321
    .630       11.0507      102.3473        1.1267      110.2091        1.1204
    .640       11.4363      104.4919        1.1298      112.2725        1.1235
    .650       12.0537      109.2509        1.1541      116.5132        1.1480
    .660       12.6814      114.5841        1.1775      120.7229        1.1715
    .670       12.9394      117.2138        1.1654      121.3407        1.1599
    .680       12.5740      115.3049        1.0990      116.1798        1.0943
    .690       12.2210      116.4833        1.0389      111.2823        1.0329
    .700       12.9890      121.1070        1.0725      116.5860        1.0667
    .710       13.4051      124.4358        1.0759      118.6257        1.0701
    .720       13.3104      126.3355        1.0387      116.1514        1.0332
    .730       13.6437      126.8434        1.0357      117.4295        1.0303
    .740       13.9558      126.3233        1.0311      118.4922        1.0255
    .750       14.2163      125.1268        1.0227      119.0948        1.0170
    .760       14.4349      123.3733        1.0114      119.3345        1.0057
    .770       14.6026      123.5763         .9968      119.1532         .9911
    .780       14.7159      124.7131         .9785      118.5388         .9733
    .790       14.9528      125.3559         .9689      118.9223         .9641
    .800       15.2296      125.5542         .9628      119.6098         .9576
    .810       15.4015      125.3809         .9499      119.4659         .9446
    .820       15.4601      124.8879         .9301      118.4582         .9252
    .830       15.5703      123.9743         .9144      117.8653         .9095
    .840       15.6258      122.5381         .8960      116.8772         .8911
    .850       15.9301      122.6357         .8914      117.7515         .8872
    .860       16.3593      127.0769         .8941      119.5184         .8901
    .870       16.5091      128.4029         .8814      119.2261         .8777
    .880       16.8946      126.4491         .8819      120.6237         .8779
    .890       16.9568      121.2568         .8654      119.7075         .8614
    .900       16.7203      113.4734         .8343      116.7261         .8307
    .910       16.2080      107.1847         .7911      111.9068         .7876
    .920       16.7903      110.4016         .8023      114.6672         .7983
    .930       17.0456      118.9069         .7976      115.1588         .7931
    .940       17.9164      123.6996         .8205      119.7538         .8159
    .950       18.3722      124.9661         .8235      121.5082         .8192
    .960       18.5269      123.7065         .8130      121.2547         .8090
    .970       18.5326      121.2739         .7963      120.0414         .7926
    .980       18.5306      118.8517         .7801      118.8037         .7764
    .990       18.6114      117.8637         .7677      118.1166         .7641
   1.000       18.7929      117.9380         .7598      118.0761         .7562
   1.010       19.0330      119.9372         .7543      118.4001         .7508
   1.020       19.2665      121.8807         .7487      118.6780         .7452
   1.030       19.4444      123.3804         .7412      118.6108         .7375
   1.040       19.6066      124.3041         .7332      118.4505         .7295
   1.050       19.7774      124.8764         .7257      118.3442         .7219
   1.060       19.9441      125.1835         .7180      118.2161         .7143
   1.070       20.1509      127.4170         .7121      118.3257         .7083
   1.080       20.4254      130.0914         .7087      118.8265         .7047
   1.090       20.7639      133.2846         .7073      119.6878         .7033
   1.100       21.1056      136.8617         .7061      120.5512         .7019
   1.110       21.3678      140.4290         .7022      120.9498         .6979
   1.120       21.4510      143.1563         .6927      120.3363         .6881
   1.130       21.2652      144.5467         .6748      118.2385         .6702
   1.140       20.8113      143.8296         .6475      114.6996         .6444
   1.150       21.1796      140.8350         .6475      115.7143         .6444
   1.160       21.1868      135.5055         .6367      114.7557         .6336
   1.170       21.7026      128.1437         .6404      116.5452         .6380
   1.180       22.2284      119.3238         .6449      118.3571         .6424
   1.190       22.6131      109.9119         .6451      119.3935         .6426
   1.200       22.8780      111.9215         .6419      119.7855         .6393
   1.210       23.0568      113.1287         .6362      119.7238         .6337
   1.220       23.1894      113.8921         .6294      119.4253         .6270
   1.230       23.3006      114.4135         .6222      119.0225         .6198
   1.240       23.4038      114.8944         .6151      118.5857         .6125
   1.250       23.4899      115.4871         .6079      118.0698         .6050
   1.260       23.5464      116.0820         .5999      117.4144         .5968
   1.270       23.5474      116.5803         .5907      116.4948         .5875
   1.280       23.9374      116.8939         .5909      117.4991         .5879
   1.290       24.2839      116.8183         .5902      118.2757         .5872
   1.300       24.5694      116.3851         .5880      118.7458         .5850
   1.310       24.7912      115.6058         .5843      118.9033         .5813
   1.320       24.9626      114.5861         .5795      118.8181         .5765
   1.330       25.1122      113.4963         .5742      118.6316         .5713
   1.340       25.2666      112.5121         .5691      118.4703         .5662
   1.350       25.4539      111.7702         .5649      118.4646         .5620
   1.360       25.6881      111.3399         .5616      118.6754         .5589
   1.370       25.9640      111.1282         .5594      119.0743         .5567
   1.380       26.2623      110.9584         .5576      119.5697         .5549
   1.390       26.5467      113.9928         .5554      119.9952         .5529
   1.400       26.7787      116.9737         .5522      120.1792         .5498
   1.410       26.9148      118.8493         .5471      119.9334         .5448
   1.420       26.9258      123.3186         .5397      119.1371         .5373
   1.430       27.3110      129.6905         .5412      119.9967         .5374
   1.440       27.8230      135.0597         .5439      121.3973         .5399
   1.450       28.1197      139.2884         .5423      121.8457         .5382
   1.460       28.2395      142.3777         .5373      121.5265         .5331
   1.470       28.2485      144.5437         .5302      120.7386         .5261
   1.480       28.2042      146.1454         .5222      119.7346         .5182
   1.490       28.1750      147.4108         .5146      118.8078         .5107
   1.500       28.1994      148.6310         .5081      118.1179         .5043
   1.510       28.3025      149.9997         .5028      117.7648         .4995
   1.520       28.4843      151.6030         .4989      117.7416         .4961
   1.530       28.7273      153.4677         .4960      117.9698         .4938
   1.540       29.0022      155.3985         .4940      118.3253         .4921
   1.550       29.2650      157.1987         .4922      118.6273         .4902
   1.560       29.4735      158.6645         .4896      118.7066         .4874
   1.570       29.5887      159.6319         .4856      118.4114         .4831
   1.580       29.5828      160.0326         .4796      117.6387         .4769
   1.590       29.4421      159.7074         .4716      116.3429         .4686
   1.600       29.4009      158.6382         .4647      115.4539         .4622
   1.610       29.8392      156.9135         .4658      116.4471         .4632
   1.620       30.2755      154.6034         .4660      117.4205         .4642
   1.630       30.6631      151.7516         .4662      118.1943         .4644
   1.640       31.0123      148.4602         .4657      118.8112         .4640
   1.650       31.3308      144.8678         .4648      119.3041         .4631
   1.660       31.6291      141.0729         .4635      119.7143         .4619
   1.670       31.9143      137.1233         .4621      120.0704         .4605
   1.680       32.1935      133.0911         .4607      120.3999         .4590
   1.690       32.4737      129.0360         .4592      120.7294         .4575
   1.700       32.7599      125.0050         .4579      121.0769         .4562
   1.710       33.0579      121.0307         .4567      121.4637         .4549
   1.720       33.3724      117.8401         .4557      121.9064         .4539
   1.730       33.7074      118.0997         .4550      122.4185         .4532
   1.740       34.0646      118.4039         .4546      123.0046         .4528
   1.750       34.4450      118.7488         .4545      123.6676         .4526
   1.760       34.8494      119.1415         .4547      124.4085         .4527
   1.770       35.2725      119.5642         .4551      125.2075         .4531
   1.780       35.7084      119.9852         .4557      126.0427         .4535
   1.790       36.1513      120.3960         .4563      126.8931         .4540
   1.800       36.5942      120.7539         .4568      127.7341         .4545
   1.810       37.0287      121.0221         .4571      128.5366         .4548
   1.820       37.4478      121.1547         .4571      129.2772         .4549
   1.830       37.8435      121.1072         .4568      129.9294         .4547
   1.840       38.2165      120.8354         .4561      130.4968         .4542
   1.850       38.5724      120.3430         .4551      131.0005         .4535
   1.860       38.9351      119.7246         .4540      131.5212         .4529
   1.870       39.3639      118.8945         .4536      132.2586         .4530
   1.880       39.8780      117.7749         .4548      133.2731         .4540
   1.890       40.4243      118.6149         .4564      134.3841         .4554
   1.900       40.9673      120.5436         .4579      135.4726         .4567
   1.910       41.4933      122.2560         .4591      136.4934         .4577
   1.920       41.9902      123.7174         .4598      137.4085         .4584
   1.930       42.4494      124.9310         .4602      138.1917         .4586
   1.940       42.8671      125.9057         .4601      138.8321         .4583
   1.950       43.2399      126.6483         .4594      139.3213         .4576
   1.960       43.5695      128.2863         .4582      139.6670         .4564
   1.970       43.8583      132.6729         .4566      139.8792         .4548
   1.980       44.9647      136.3351         .4635      142.6835         .4615
   1.990       46.2282      139.1768         .4718      145.9557         .4697
   2.000       47.2698      141.1598         .4777      148.4982         .4755
   2.010       48.0764      144.0232         .4811      150.2806         .4789
   2.020       48.6329      149.7615         .4819      151.2676         .4796
   2.030       48.9383      155.3517         .4802      151.4677         .4779
   2.040       49.0042      160.7337         .4761      150.9283         .4738
   2.050       48.8431      165.8364         .4700      149.6982         .4677
   2.060       48.4865      170.6331         .4621      147.8839         .4598
   2.070       47.9762      175.0584         .4528      145.6205         .4506
   2.080       47.3565      179.0047         .4427      143.0488         .4405
   2.090       46.6853      182.4258         .4323      140.3464         .4301
   2.100       46.9356      185.2756         .4299      140.4268         .4283
   2.110       47.8170      187.5649         .4336      142.3860         .4322
   2.120       48.6822      189.2659         .4366      144.2784         .4359
   2.130       49.5861      190.3274         .4407      146.2674         .4398
   2.140       50.4437      190.7841         .4442      148.1018         .4432
   2.150       51.4798      190.6931         .4490      150.4408         .4482
   2.160       52.4878      190.1279         .4539      152.6764         .4527
   2.170       53.3882      189.0989         .4576      154.5797         .4562
   2.180       54.1735      187.6900         .4604      156.1340         .4587
   2.190       54.8554      186.0119         .4620      157.3774         .4603
   2.200       55.4452      184.1585         .4628      158.3465         .4610
   2.210       55.9518      182.1841         .4628      159.0704         .4610
   2.220       56.3859      180.1574         .4624      159.5824         .4604
   2.230       56.7687      178.1618         .4616      159.9454         .4594
   2.240       57.1186      176.2593         .4605      160.2126         .4581
   2.250       57.4528      174.4985         .4593      160.4338         .4567
   2.260       57.7910      172.8839         .4580      160.6641         .4553
   2.270       58.1466      171.4254         .4569      160.9406         .4541
   2.280       58.5285      170.1245         .4560      161.2871         .4531
   2.290       58.9498      168.9673         .4553      161.7388         .4524
   2.300       59.4065      167.9297         .4550      162.2833         .4519
   2.310       59.9018      166.9890         .4548      162.9279         .4517
   2.320       60.4350      166.1316         .4550      163.6697         .4518
   2.330       60.9938      165.4873         .4554      164.4738         .4521
   2.340       61.5781      165.3903         .4558      165.3398         .4525
   2.350       62.1769      165.3028         .4564      166.2374         .4531
   2.360       62.7803      165.1932         .4571      167.1394         .4536
   2.370       63.3881      165.0389         .4577      168.0455         .4541
   2.380       63.9875      164.8224         .4582      168.9218         .4546
   2.390       64.5756      164.5627         .4586      169.7611         .4549
   2.400       65.1555      164.2574         .4590      170.5717         .4552
   2.410       65.7184      163.8943         .4592      171.3315         .4553
   2.420       66.2701      163.4983         .4594      172.0561         .4554
   2.430       66.8118      163.0776         .4594      172.7484         .4553
   2.440       67.3430      162.6303         .4594      173.4085         .4552
   2.450       67.8725      162.1902         .4593      174.0585         .4550
   2.460       68.4002      161.7412         .4591      174.6987         .4548
   2.470       68.9274      161.2945         .4590      175.3326         .4546
   2.480       69.4641      160.8682         .4589      175.9852         .4545
   2.490       70.0069      160.4464         .4588      176.6481         .4544
   2.500       70.5558      160.0257         .4588      177.3210         .4543
   2.510       71.1172      159.6202         .4588      178.0198         .4542
   2.520       71.6856      159.2169         .4588      178.7305         .4543
   2.530       72.2598      158.8051         .4589      179.4500         .4543
   2.540       72.8417      158.3716         .4589      180.1830         .4543
   2.550       73.4263      157.9266         .4590      180.9167         .4544
   2.560       74.0113      157.4751         .4590      181.6457         .4544
   2.570       74.5989      156.9911         .4591      182.3757         .4545
   2.580       75.1824      157.0739         .4591      183.0897         .4545
   2.590       75.7610      157.3017         .4591      183.7864         .4545
   2.600       76.3407      157.5143         .4590      184.4804         .4544
   2.610       76.9157      157.6990         .4589      185.1578         .4544
   2.620       77.4845      157.8447         .4588      185.8151         .4542
   2.630       78.0588      157.9680         .4587      186.4806         .4541
   2.640       78.6317      158.0841         .4586      187.1376         .4540
   2.650       79.2052      158.1904         .4585      187.7912         .4539
   2.660       79.7893      158.2865         .4584      188.4649         .4538
   2.670       80.3789      158.3737         .4583      189.1464         .4537
   2.680       80.9747      158.4514         .4583      189.8374         .4537
   2.690       81.5893      158.5604         .4583      190.5672         .4537
   2.700       82.2108      158.6549         .4584      191.3076         .4538
   2.710       82.8438      158.7455         .4585      192.0693         .4539
   2.720       83.4933      158.8296         .4587      192.8636         .4541
   2.730       84.1485      158.8903         .4589      193.6649         .4543
   2.740       84.8138      158.9490         .4592      194.4837         .4546
   2.750       85.4850      158.9847         .4595      195.3101         .4549
   2.760       86.1550      160.4322         .4597      196.1275         .4551
   2.770       86.8275      164.6350         .4600      196.9449         .4554
   2.780       87.4924      168.6110         .4601      197.7393         .4556
   2.790       88.1496      172.3378         .4603      198.5106         .4557
   2.800       88.7980      175.7357         .4604      199.2565         .4558
   2.810       89.4284      178.7574         .4603      199.9569         .4558
   2.820       90.0471      181.3833         .4602      200.6263         .4557
   2.830       90.6478      183.6058         .4600      201.2511         .4555
   2.840       91.2356      185.4563         .4597      201.8428         .4552
   2.850       91.8085      186.9315         .4594      202.3976         .4548
   2.860       92.3672      188.0753         .4590      202.9174         .4544
   2.870       92.9225      188.8285         .4585      203.4259         .4540
   2.880       93.4715      189.1158         .4580      203.9174         .4535
   2.890       94.0242      188.9749         .4575      204.4132         .4530
   2.900       94.5838      188.4849         .4571      204.9208         .4526
   2.910       95.1565      187.6585         .4567      205.4532         .4522
   2.920       95.7500      186.5120         .4564      206.0267         .4519
   2.930       96.3661      185.0793         .4562      206.6447         .4517
   2.940       97.0164      183.3594         .4562      207.3316         .4517
   2.950       97.6983      181.3796         .4563      208.0810         .4518
   2.960       98.4179      179.1994         .4565      208.9054         .4520
   2.970       99.1764      176.8518         .4569      209.8067         .4524
   2.980       99.9736      174.4494         .4575      210.7835         .4530
   2.990      100.8061      175.6100         .4582      211.8279         .4537
   3.000      101.6725      176.6584         .4591      212.9364         .4546
   3.010      102.5680      177.6236         .4600      214.0981         .4556
   3.020      103.4857      178.4384         .4610      215.2984         .4566
   3.030      104.4135      179.1183         .4619      216.5116         .4577
   3.040      105.3430      179.6061         .4628      217.7206         .4587
   3.050      106.2601      179.9774         .4636      218.8959         .4597
   3.060      107.1499      182.7361         .4643      220.0076         .4605
   3.070      107.9967      185.4588         .4647      221.0241         .4611
   3.080      108.7797      188.1060         .4648      221.9038         .4614
   3.090      109.4854      190.6597         .4646      222.6206         .4614
   3.100      110.1023      193.0783         .4642      223.1527         .4610
   3.110      110.6050      195.3143         .4636      223.4508         .4602
   3.120      110.9887      197.3592         .4624      223.5072         .4588
   3.130      111.2341      199.2105         .4606      223.2857         .4569
   3.140      111.3362      202.3431         .4583      222.7789         .4544
   3.150      111.2821      205.3014         .4553      221.9639         .4513
   3.160      111.0585      208.0321         .4516      220.8168         .4476
   3.170      110.6678      210.5022         .4472      219.3458         .4432
   3.180      110.1000      212.6591         .4421      217.5342         .4381
   3.190      109.3644      214.5128         .4363      215.4034         .4325
   3.200      108.4704      215.9953         .4299      212.9750         .4263
   3.210      107.4342      217.0556         .4228      210.2834         .4196
   3.220      106.2945      217.6834         .4153      207.4065         .4125
   3.230      108.6955      217.8568         .4216      211.4348         .4192
   3.240      111.3506      217.5768         .4293      215.9310         .4268
   3.250      113.8742      216.8264         .4363      220.1454         .4338
   3.260      116.2424      219.8384         .4427      224.0342         .4401
   3.270      118.4425      224.4531         .4484      227.5764         .4457
   3.280      120.4373      228.6845         .4531      230.7037         .4505
   3.290      122.2503      232.6202         .4572      233.4649         .4545
   3.300      123.8565      236.1868         .4604      235.8154         .4577
   3.310      125.2645      239.3792         .4628      237.7758         .4601
   3.320      126.4984      242.2363         .4646      239.3946         .4618
   3.330      127.5585      244.7607         .4657      240.6758         .4629
   3.340      128.4800      247.0456         .4662      241.6888         .4635
   3.350      129.2481      249.0968         .4662      242.4079         .4634
   3.360      129.9194      250.9605         .4658      242.9418         .4631
   3.370      130.5164      252.6717         .4651      243.3338         .4625
   3.380      131.0371      254.2336         .4642      243.5819         .4616
   3.390      131.5105      255.6849         .4631      243.7407         .4605
   3.400      131.9686      257.0915         .4620      243.8704         .4594
   3.410      132.4035      258.4717         .4608      243.9565         .4582
   3.420      132.8536      259.8896         .4597      244.0701         .4571
   3.430      133.3143      261.3254         .4585      244.2025         .4560
   3.440      133.7964      262.7894         .4575      244.3730         .4550
   3.450      134.4234      264.2701         .4565      244.8066         .4545
   3.460      135.6613      265.7622         .4580      246.3470         .4560
   3.470      136.9346      267.2714         .4597      247.9426         .4576
   3.480      138.2307      268.7854         .4614      249.5703         .4593
   3.490      139.5219      270.2503         .4631      251.1796         .4610
   3.500      140.7959      271.6156         .4647      252.7490         .4625
   3.510      142.0417      272.8582         .4662      254.2589         .4639
   3.520      143.2093      273.8713         .4674      255.6206         .4651
   3.530      144.2931      274.6830         .4683      256.8256         .4660
   3.540      145.2764      275.2649         .4689      257.8454         .4665
   3.550      146.1145      275.6086         .4690      258.6022         .4666
   3.560      146.7983      275.6794         .4686      259.0828         .4661
   3.570      147.3027      275.4155         .4677      259.2446         .4651
   3.580      147.6078      274.8007         .4661      259.0561         .4635
   3.590      147.7069      273.8112         .4638      258.5079         .4612
   3.600      147.5762      272.3903         .4609      257.5618         .4582
   3.610      147.2019      270.5170         .4573      256.1968         .4545
   3.620      146.6176      268.2689         .4530      254.4748         .4502
   3.630      145.7695      265.5698         .4480      252.3059         .4452
   3.640      144.7054      262.5192         .4423      249.7760         .4395
   3.650      143.4066      259.1003         .4360      246.8561         .4332
   3.660      141.9081      255.3614         .4291      243.6091         .4263
   3.670      142.0295      251.3418         .4281      243.1532         .4243
   3.680      144.2847      247.0559         .4326      246.3428         .4287
   3.690      146.4112      242.6127         .4366      249.2960         .4327
   3.700      148.3997      241.0505         .4401      251.9990         .4362
   3.710      150.2599      243.9214         .4430      254.4700         .4393
   3.720      152.0461      246.5126         .4454      256.8028         .4421
   3.730      153.7962      248.8382         .4474      259.0624         .4448
   3.740      155.4724      250.8642         .4491      261.1856         .4473
   3.750      157.0621      252.5916         .4508      263.1525         .4494
   3.760      158.5528      254.0486         .4528      264.9437         .4513
   3.770      159.9463      257.1353         .4545      266.5632         .4529
   3.780      161.2413      261.5094         .4560      268.0106         .4541
   3.790      162.4467      265.6900         .4571      269.3017         .4551
   3.800      163.5664      269.6721         .4579      270.4443         .4558
   3.810      164.6162      273.4683         .4585      271.4658         .4563
   3.820      165.6241      277.0950         .4588      272.4129         .4567
   3.830      166.6039      280.5300         .4589      273.3089         .4570
   3.840      167.5843      283.7627         .4588      274.2012         .4573
   3.850      168.5702      286.8346         .4587      275.0980         .4576
   3.860      169.5179      289.7430         .4590      275.9279         .4578
   3.870      170.4111      292.4868         .4594      276.6650         .4579
   3.880      171.2504      295.0738         .4596      277.3112         .4578
   3.890      172.0594      297.5350         .4597      277.9050         .4576
   3.900      172.8322      299.8726         .4596      278.4373         .4573
   3.910      173.5751      302.0934         .4594      278.9189         .4569
   3.920      174.2921      304.2090         .4591      279.3567         .4564
   3.930      175.0025      306.2398         .4587      279.7816         .4560
   3.940      175.7109      308.1971         .4582      280.2011         .4555
   3.950      176.4149      310.0978         .4577      280.6116         .4550
   3.960      177.1229      311.9362         .4572      281.0262         .4545
   3.970      177.8588      313.7339         .4567      281.4830         .4541
   3.980      178.6314      315.4975         .4561      281.9955         .4538
   3.990      179.4257      317.2126         .4556      282.5395         .4535
   4.000      180.2635      318.9183         .4551      283.1491         .4534
   4.010      181.1182      320.5927         .4547      283.7821         .4533
   4.020      182.0002      322.2676         .4546      284.4548         .4532
   4.030      182.9039      323.9453         .4547      285.1578         .4532
   4.040      183.8178      325.6067         .4548      285.8733         .4532
   4.050      184.7532      327.3044         .4550      286.6184         .4533
   4.060      185.6930      328.9941         .4552      287.3669         .4533
   4.070      186.6452      330.6957         .4554      288.1309         .4534
   4.080      187.6118      332.4067         .4556      288.9131         .4535
   4.090      188.5747      334.1023         .4558      289.6858         .4536
   4.100      189.5582      335.8094         .4561      290.4864         .4538
   4.110      190.5261      337.4866         .4564      291.2592         .4539
   4.120      191.5095      339.1825         .4566      292.0521         .4540
   4.130      192.4866      340.8687         .4568      292.8314         .4541
   4.140      193.4698      342.5471         .4570      293.6162         .4542
   4.150      194.4481      344.2053         .4571      294.3897         .4543
   4.160      195.4302      345.8499         .4572      295.1654         .4544
   4.170      196.4044      347.4661         .4573      295.9254         .4545
   4.180      197.3730      349.0505         .4573      296.6733         .4546
   4.190      198.3697      350.6396         .4574      297.4598         .4547
   4.200      199.3433      352.1900         .4573      298.2080         .4547
   4.210      200.3220      353.7185         .4573      298.9602         .4548
   4.220      201.2952      355.2102         .4572      299.7007         .4549
   4.230      202.2709      356.6725         .4571      300.4414         .4549
   4.240      203.2518      358.1093         .4570      301.1865         .4550
   4.250      204.2146      359.4909         .4570      301.9011         .4550
   4.260      205.1853      360.8500         .4570      302.6240         .4550
   4.270      206.1333      362.1520         .4570      303.3102         .4549
   4.280      207.0886      363.4428         .4570      304.0039         .4549
   4.290      208.0326      364.6980         .4570      304.6779         .4549
   4.300      208.9764      365.9211         .4569      305.3484         .4548
   4.310      209.9175      367.1110         .4569      306.0117         .4547
   4.320      210.8465      368.2555         .4568      306.6544         .4546
   4.330      211.7946      369.3892         .4568      307.3219         .4546
   4.340      212.7298      370.4778         .4567      307.9678         .4545
   4.350      213.6615      371.5508         .4566      308.6054         .4544
   4.360      214.6048      372.6119         .4565      309.2570         .4543
   4.370      215.5479      373.7275         .4564      309.9053         .4542
   4.380      216.4905      374.8375         .4563      310.5499         .4541
   4.390      217.4310      375.9229         .4562      311.1884         .4540
   4.400      218.3819      376.9968         .4561      311.8390         .4539
   4.410      219.3320      378.0652         .4561      312.4855         .4538
   4.420      220.2982      379.1382         .4561      313.1519         .4538
   4.430      221.2623      380.1923         .4561      313.8123         .4537
   4.440      222.2443      381.2490         .4561      314.4952         .4537
   4.450      223.2272      382.2902         .4561      315.1763         .4536
   4.460      224.2201      383.3263         .4561      315.8683         .4536
   4.470      225.2267      384.3621         .4562      316.5766         .4536
   4.480      226.2614      385.4115         .4562      317.3210         .4536
   4.490      227.2799      386.4293         .4563      318.0395         .4537
   4.500      228.3284      387.4623         .4563      318.7966         .4537
   4.510      229.3855      388.4916         .4564      319.5623         .4538
   4.520      230.4626      389.5448         .4565      320.3527         .4539
   4.530      231.5509      390.5995         .4566      321.1548         .4541
   4.540      232.6344      391.6348         .4568      321.9469         .4542
   4.550      233.7501      392.6917         .4569      322.7799         .4544
   4.560      234.8598      393.7307         .4571      323.6011         .4545
   4.570      235.9722      394.7561         .4573      324.4223         .4547
   4.580      237.0880      395.7716         .4575      325.2447         .4548
   4.590      238.2052      396.7750         .4578      326.0654         .4550
   4.600      239.3445      397.7801         .4580      326.9127         .4552
   4.610      240.4431      398.7252         .4582      327.7008         .4553
   4.620      241.5661      399.6729         .4584      328.5186         .4554
   4.630      242.6907      400.5989         .4586      329.3351         .4556
   4.640      243.7852      401.4624         .4587      330.1075         .4557
   4.650      244.8905      402.3279         .4588      330.8910         .4558
   4.660      245.9817      403.1499         .4589      331.6521         .4558
   4.670      247.0553      403.9144         .4589      332.3864         .4559
   4.680      248.1147      404.6235         .4588      333.0984         .4559
   4.690      249.1670      405.2803         .4588      333.7979         .4558
   4.700      250.1900      405.8560         .4586      334.4553         .4558
   4.710      251.2114      406.3755         .4585      335.1076         .4557
   4.720      252.2009      406.8015         .4582      335.7147         .4555
   4.730      253.1757      407.1429         .4580      336.2999         .4554
   4.740      254.1419      407.4025         .4577      336.8711         .4552
   4.750      255.1056      407.5784         .4573      337.4366         .4550
   4.760      256.0371      407.6408         .4570      337.9573         .4547
   4.770      256.9464      407.6208         .4565      338.4464         .4544
   4.780      257.8376      407.5014         .4561      338.9098         .4541
   4.790      258.6680      407.2369         .4557      339.2915         .4537
   4.800      259.4971      406.8911         .4553      339.6698         .4532
   4.810      260.2451      406.3824         .4548      339.9407         .4526
   4.820      261.5520      405.7646         .4555      340.9390         .4530
   4.830      263.1259      405.0154         .4564      342.2804         .4539
   4.840      264.6324      404.1013         .4573      343.5288         .4546
   4.850      266.1162      403.0928         .4581      344.7428         .4553
   4.860      267.5278      401.9404         .4587      345.8583         .4558
   4.870      268.9051      400.6659         .4593      346.9250         .4563
   4.880      270.2392      399.2568         .4598      347.9318         .4566
   4.890      271.5183      397.6924         .4601      348.8638         .4569
   4.900      272.7383      395.9618         .4603      349.7161         .4571
   4.910      273.9089      394.0711         .4603      350.5017         .4572
   4.920      275.0493      392.0690         .4602      351.2456         .4572
   4.930      276.1473      389.9269         .4600      351.9325         .4572
   4.940      277.2144      387.6571         .4597      352.5773         .4571
   4.950      278.2105      385.2253         .4592      353.1293         .4569
   4.960      279.1448      382.6732         .4586      353.6009         .4566
   4.970      280.0086      379.9826         .4582      353.9814         .4562
   4.980      280.8096      377.1635         .4579      354.2812         .4556
   4.990      281.5229      374.2134         .4573      354.4693         .4550
   5.000      282.1320      371.1230         .4567      354.5258         .4541
   5.010      282.6879      367.9317         .4560      354.5152         .4532
